# Telescope:  LTRT
# Description: 2.4m parabolic C-Band antenna
# Location: Glenorie, NSW, Australia
# Coordinates: 151.008 E, 33.5959 S
# Mode: cal
# Centre frequency:  3700 MHz
# Sample time (ms): 10
# Receiver Gain (dB): 5
# Observation length (s): 7200
# Local Time start:  Fri Feb 22 20:53:09 2013
# UTC start:  Fri Feb 22 09:53:09 2013
# LST start (hh:mm:ss):  06:07:01
# Source: no_lnb
# Declination (degrees): -33.6
0.00114722 32.135
0.00218611 32.1425
0.003275 32.005
0.00443056 32.08
0.00558611 32.11
0.00674167 32.095
0.00789722 32.0725
0.00905278 32.0675
0.0102083 32.0275
0.0113639 31.93
0.0125194 31.95
0.013675 32.0325
0.0148306 31.95
0.0159861 31.9225
0.0171417 31.96
0.0182972 31.7425
0.0194528 31.855
0.0206083 31.865
0.0217639 31.84
0.0229194 31.7125
0.024075 31.8675
0.0252306 31.7975
0.0263861 31.81
0.0275417 31.94
0.0287917 31.8375
0.0300611 31.84
0.0313333 31.775
0.0326028 31.7075
0.033875 31.715
0.0351472 31.435
0.0364167 31.6275
0.0376889 31.6475
0.0389583 31.6625
0.0402306 31.7475
0.0415028 31.6275
0.0427722 31.4875
0.0440444 31.47
0.0453139 31.49
0.0465861 31.4975
0.0478583 31.4775
0.0491278 31.48
0.0504 31.4125
0.0516694 31.5225
0.0529417 31.485
0.0542139 31.44
0.0554833 31.5225
0.0567556 31.185
0.058025 31.3525
0.0592972 31.4475
0.0605694 31.4325
0.0618389 31.5175
0.0631111 31.4625
0.0643806 31.275
0.0656528 31.29
0.066925 31.0625
0.0681944 31.2175
0.0694667 31.335
0.0707361 31.28
0.0720083 31.295
0.0732806 31.3425
0.07455 31.2525
0.0758222 31.1475
0.0770917 31.2575
0.0783639 31.295
0.0796361 31.195
0.0809056 31.255
0.0821778 31.3075
0.0834472 31.1725
0.0847194 31.18
0.0859917 30.9775
0.0872611 31.14
0.0885333 31.17
0.0898028 31.075
0.091075 31.0775
0.0923472 30.96
0.0936167 30.8225
0.0948889 31.03
0.0961583 30.9775
0.0974306 31.095
0.0987028 31.03
0.0999722 30.9925
0.101244 30.9475
0.102514 30.97
0.103786 30.775
0.105058 30.91
0.106328 30.8975
0.1076 30.795
0.108869 30.8
0.110142 30.5075
0.111414 30.895
0.112683 30.83
0.113956 30.8075
0.115225 30.775
0.116497 30.8275
0.117769 30.4375
0.119039 30.645
0.120311 30.7425
0.121581 30.765
0.122853 30.7475
0.124125 30.6675
0.125394 30.61
0.126667 30.6925
0.127936 30.61
0.129208 30.6525
0.130481 30.6325
0.13175 30.8125
0.133022 30.3775
0.134292 30.4775
0.135564 30.59
0.136836 30.6425
0.138106 30.69
0.139378 30.42
0.140647 30.6125
0.141919 30.5025
0.143192 30.605
0.144461 30.545
0.145733 30.69
0.147003 30.7375
0.148275 30.485
0.149547 30.505
0.150817 30.535
0.152089 30.495
0.153358 30.6875
0.154631 30.51
0.155903 30.3875
0.157172 30.4775
0.158444 30.375
0.159714 30.4275
0.160986 30.4275
0.162258 30.545
0.163528 30.435
0.1648 30.2625
0.166069 30.175
0.167342 30.295
0.168614 30.335
0.169883 30.3575
0.171156 30.235
0.172425 30.34
0.173697 30.5375
0.174969 30.145
0.176239 30.295
0.177511 30.2275
0.178781 30.2475
0.180053 30.15
0.181325 30.3975
0.182594 30.31
0.183867 30.2875
0.185136 30.3325
0.186408 30.21
0.187681 30.2075
0.18895 30.4575
0.190222 30.275
0.191492 30.1125
0.192764 30.265
0.194036 30.17
0.195306 30.115
0.196578 30.0475
0.197847 29.87
0.199119 29.8275
0.200392 30.17
0.201661 30.0975
0.202933 30.1125
0.204203 30.11
0.205475 30.1875
0.206747 29.9825
0.208017 30.0575
0.209289 29.9825
0.210558 30.0375
0.211831 30.0175
0.213103 29.97
0.214372 29.89
0.215644 29.8875
0.216914 29.705
0.218186 30.005
0.219458 30.035
0.220728 29.945
0.222 29.975
0.223269 29.9425
0.224542 29.855
0.225814 30.0675
0.227083 29.8575
0.228356 29.7575
0.229625 30.105
0.230897 29.985
0.232169 29.8675
0.233439 29.7775
0.234711 29.89
0.235981 29.7975
0.237253 29.8175
0.238525 29.9675
0.239794 29.785
0.241067 29.63
0.242336 29.575
0.243608 29.855
0.244881 29.8525
0.24615 29.905
0.247422 29.84
0.248692 29.7875
0.249964 29.7725
0.251236 29.8025
0.252506 29.76
0.253778 29.675
0.255047 29.7
0.256319 29.9275
0.257592 29.685
0.258861 29.745
0.260133 29.64
0.261403 29.73
0.262675 29.65
0.263947 29.7675
0.265217 29.6675
0.266489 29.765
0.267758 29.6875
0.269031 29.735
0.270303 29.79
0.271572 29.74
0.272844 29.91
0.274114 30.0575
0.275386 29.8925
0.276658 29.655
0.277942 29.815
0.279328 29.6575
0.280717 29.6425
0.282103 29.71
0.283489 29.135
0.284875 29.85
0.286261 30.2325
0.28765 30.345
0.289036 29.625
0.290422 29.62
0.291808 29.6725
0.293194 29.6925
0.294583 29.595
0.295969 29.7475
0.297356 29.61
0.298742 29.6475
0.300128 29.73
0.301514 29.705
0.302903 29.7125
0.304289 29.8
0.305675 29.4675
0.307061 29.705
0.30845 29.5875
0.309836 29.5775
0.311222 29.6725
0.312608 29.5975
0.313994 29.575
0.315383 29.6175
0.316769 29.625
0.318156 29.52
0.319542 29.5575
0.320928 29.5475
0.322314 29.525
0.323703 29.59
0.325089 29.645
0.326475 29.3825
0.327861 29.545
0.32925 29.5325
0.330636 29.4775
0.332022 29.4775
0.333408 29.5975
0.334794 29.4375
0.336183 29.62
0.337569 29.505
0.338956 29.4475
0.340342 29.5075
0.341728 29.5475
0.343114 29.37
0.344503 29.63
0.345889 29.705
0.347275 29.7725
0.348661 29.41
0.35005 29.6
0.351436 29.475
0.352822 29.485
0.354208 29.3825
0.355594 29.41
0.356983 29.425
0.358369 29.5
0.359756 29.46
0.361142 29.445
0.362528 29.4675
0.363914 29.34
0.365303 29.32
0.366689 29.435
0.368075 29.4225
0.369461 29.395
0.37085 29.4
0.372236 29.4325
0.373622 29.4425
0.375008 29.435
0.376394 29.3725
0.377783 29.3675
0.379169 29.3625
0.380556 28.9975
0.381942 29.4975
0.383328 29.2725
0.384714 29.56
0.386103 29.305
0.387489 29.3075
0.388875 29.3475
0.390261 29.35
0.39165 29.2275
0.393036 29.2225
0.394422 29.3075
0.395808 29.23
0.397194 29.3325
0.398583 29.1075
0.399969 29.0575
0.401356 28.955
0.402742 29.225
0.404128 29.1825
0.405514 29.31
0.406903 29.3325
0.408289 29.1725
0.409675 29.2625
0.411061 29.38
0.412447 29.3025
0.413836 29.2875
0.415222 29.38
0.416608 29.2125
0.417994 29.2275
0.419383 29.2625
0.420769 29.2
0.422156 29.295
0.423542 29.3725
0.424928 29.2925
0.426314 29.26
0.427703 29.165
0.429089 29.31
0.430475 29.435
0.431861 29.7925
0.433247 29.1175
0.434636 29.5275
0.436022 29.0575
0.437408 29.1925
0.438794 29.18
0.440183 29.2
0.441569 29.1925
0.442956 29.22
0.444342 29.15
0.445728 29.2225
0.447114 29.2225
0.448503 29.2375
0.449889 29.18
0.451275 29.175
0.452661 29.105
0.454047 29.245
0.455436 29.1
0.456822 29.2375
0.458208 29.2275
0.459594 29.195
0.460983 29.0975
0.462369 29.3825
0.463756 29.2
0.465142 29.2425
0.466528 29.16
0.467917 29.04
0.469303 29.23
0.470689 28.95
0.472075 29.365
0.473461 29.115
0.474847 29.4075
0.476236 29.0925
0.477622 29.2825
0.479008 29.38
0.480394 29.28
0.481783 29.1375
0.483169 29.2325
0.484556 29.14
0.485942 29.1075
0.487328 29.085
0.488717 29.2175
0.490103 29.1225
0.491489 29.1575
0.492875 29.1175
0.494261 29.225
0.495647 29.105
0.497036 29.1825
0.498422 29.1725
0.499808 29.085
0.501194 29.1175
0.502583 29.1525
0.503969 29.02
0.505356 29.085
0.506742 29.0725
0.508128 29.2425
0.509517 29.0175
0.510903 29.21
0.512289 28.94
0.513675 29.025
0.515061 29.0975
0.516447 29.1875
0.517836 28.8775
0.519222 28.875
0.520608 29.19
0.521994 29.0175
0.523383 29.105
0.524769 28.9875
0.526156 28.945
0.527542 29.1925
0.528928 29.085
0.530317 29.085
0.531703 29.1075
0.533089 29.1875
0.534475 29.135
0.535861 28.9875
0.537247 29.115
0.538636 29.065
0.540022 29.085
0.541408 29.0775
0.542794 29.02
0.544183 29.065
0.545569 29.1
0.546956 29.1275
0.548342 29.2325
0.549728 28.9775
0.551117 29.215
0.552503 29.0825
0.553889 29.0675
0.555275 28.755
0.556661 28.745
0.558047 29.0275
0.559436 28.9725
0.560822 28.9775
0.562208 28.7725
0.563594 29.1625
0.564983 28.9225
0.566369 29.005
0.567756 29.3225
0.569142 29.13
0.570528 28.96
0.571914 29.0975
0.573303 29.1575
0.574689 29.1225
0.576075 29.1775
0.577461 28.955
0.578847 29.055
0.580236 29.04
0.581622 29.095
0.583008 29.075
0.584394 29.1675
0.585781 29.0175
0.587169 29.0025
0.588556 28.9675
0.589942 29.0625
0.591328 29.0725
0.592714 28.915
0.594103 29.0575
0.595489 29.05
0.596875 28.97
0.598261 29.0225
0.599647 28.995
0.601036 28.98
0.602422 29.0925
0.603808 29.0325
0.605194 29.0225
0.606581 29.0325
0.607969 29.0775
0.609356 29.0075
0.610742 28.9
0.612128 28.9625
0.613514 28.9775
0.614903 29.0725
0.616289 29.08
0.617675 29.025
0.619061 29.05
0.620447 29.0175
0.621836 29.0275
0.623222 29.035
0.624608 29.075
0.625994 28.905
0.627381 28.7925
0.628769 29.02
0.630156 29.0025
0.631542 29.1225
0.632928 28.9975
0.634314 28.96
0.635703 28.91
0.637089 28.88
0.638475 28.8625
0.639861 29.1425
0.64125 28.8025
0.642636 29.13
0.644022 28.9675
0.645408 28.775
0.646794 29.015
0.648181 28.9725
0.649569 28.89
0.650956 28.9
0.652342 29.035
0.653728 29.0375
0.655114 28.8625
0.656503 28.9625
0.657889 28.91
0.659275 28.9675
0.660661 29.025
0.662047 29.005
0.663436 28.83
0.664822 28.8775
0.666208 28.8675
0.667594 28.9575
0.668981 28.9775
0.670369 28.94
0.671756 28.975
0.673142 28.9225
0.674528 28.99
0.675914 29.025
0.677303 28.8625
0.678689 28.8975
0.680075 29.04
0.681461 28.8825
0.682847 28.8225
0.684236 28.945
0.685622 28.8975
0.687008 28.9375
0.688394 28.925
0.689781 28.7925
0.691169 28.78
0.692556 28.8125
0.693942 28.8775
0.695328 28.8875
0.696714 28.8525
0.698103 28.935
0.699489 29
0.700875 29.035
0.702261 28.96
0.703647 29.0725
0.705036 28.9275
0.706422 28.865
0.707808 28.925
0.709194 28.905
0.710581 28.9175
0.711969 28.95
0.713356 28.885
0.714742 28.9625
0.716128 29.035
0.717514 29.0075
0.718903 28.8175
0.720289 28.9775
0.721675 28.905
0.723061 28.9425
0.724447 28.92
0.725836 28.8525
0.727222 28.9175
0.728608 28.965
0.729994 28.905
0.731381 28.8725
0.732769 28.825
0.734156 28.9475
0.735542 28.865
0.736928 28.8925
0.738314 28.91
0.739703 28.955
0.741089 28.95
0.742475 28.8725
0.743861 28.92
0.745247 29.0425
0.746636 28.935
0.748022 28.9475
0.749408 28.9
0.750794 28.98
0.752181 28.935
0.753569 28.9375
0.754956 28.8975
0.756342 29.01
0.757728 28.885
0.759114 28.9075
0.760503 28.955
0.761889 28.9025
0.763275 28.8675
0.764661 28.945
0.766047 28.9175
0.767436 28.985
0.768822 28.94
0.770208 28.995
0.771594 28.91
0.772981 28.89
0.774369 28.84
0.775756 28.95
0.777142 28.9025
0.778528 28.9725
0.779914 28.9375
0.781303 28.9225
0.782689 28.9475
0.784075 29.0625
0.785461 28.9825
0.786847 28.9
0.788236 28.965
0.789622 28.965
0.791008 29.0175
0.792394 29.0475
0.793781 29.025
0.795169 29.11
0.796556 29.11
0.797942 29.33
0.799328 28.825
0.800714 28.64
0.802103 28.9625
0.803489 28.985
0.804875 29.0275
0.806261 29.0425
0.807647 28.9875
0.809036 28.94
0.810422 29.0475
0.811808 29.0025
0.813194 29.0275
0.814583 28.8925
0.815969 28.945
0.817356 28.9375
0.818742 29.05
0.820128 29.005
0.821514 29.075
0.822903 29.1675
0.824289 28.995
0.825675 29.37
0.827061 28.825
0.828447 28.9675
0.829836 29.0425
0.831222 29.1525
0.832608 29.055
0.833994 29.1275
0.835381 29.0025
0.836769 29.065
0.838156 29.105
0.839542 29.1225
0.840928 29.105
0.842314 29.08
0.843703 29.105
0.845089 29.135
0.846475 29.13
0.847861 29.11
0.849247 28.9825
0.850636 29.0475
0.852022 29.135
0.853408 29.255
0.854794 29.0775
0.856181 29.0675
0.857569 29.0775
0.858956 29.1175
0.860342 29.1175
0.861728 29.0425
0.863114 29.205
0.864503 29.1325
0.865889 29.2625
0.867275 29.135
0.868661 29.5575
0.870047 29.3375
0.871436 29.215
0.872822 29.09
0.874208 28.92
0.875594 29.315
0.876981 29.215
0.878369 29.215
0.879756 29.17
0.881142 29.18
0.882528 29.2025
0.883914 29.0975
0.885303 29.2075
0.886689 29.1675
0.888075 29.31
0.889461 29.1475
0.890847 29.15
0.892236 29.3375
0.893622 29.245
0.895008 29.1725
0.896394 29.6375
0.897781 29.7325
0.899169 29.54
0.900556 29.1625
0.901942 29.2925
0.903328 29.475
0.904714 29.1975
0.906103 29.325
0.907489 29.29
0.908875 29.2775
0.910261 29.3275
0.911647 29.2075
0.913036 29.235
0.914422 29.2825
0.915808 29.3025
0.917194 29.29
0.918581 29.275
0.919969 29.175
0.921356 29.2825
0.922742 29.3775
0.924128 29.2425
0.925514 29.3975
0.926903 29.3375
0.928289 29.1525
0.929675 29.2875
0.931061 29.4325
0.932447 29.385
0.933836 28.955
0.935222 29.3875
0.936608 29.175
0.937994 29.335
0.939381 29.59
0.940769 29.3975
0.942156 29.52
0.943542 29.37
0.944928 29.235
0.946314 29.295
0.947703 29.12
0.949089 29.33
0.950475 29.18
0.951861 29.3025
0.953247 29.3725
0.954636 29.37
0.956022 29.3225
0.957408 29.39
0.958794 29.3325
0.960181 29.3025
0.961569 29.3825
0.962956 29.3025
0.964342 29.3275
0.965728 29.2925
0.967114 29.3325
0.968503 29.31
0.969889 29.335
0.971275 29.2825
0.972661 29.3475
0.974047 29.3875
0.975436 29.33
0.976822 29.2775
0.978208 29.29
0.979594 29.32
0.980981 29.3375
0.982369 29.255
0.983756 29.2975
0.985142 29.2175
0.986528 29.3425
0.987917 29.345
0.989303 29.3625
0.990689 29.3
0.992075 29.345
0.993461 29.3475
0.994847 29.2875
0.996236 29.5525
0.997622 29.44
0.999008 29.4025
1.00039 29.3275
1.00178 29.4025
1.00317 29.1975
1.00456 29.445
1.00594 29.4775
1.00733 29.3575
1.00871 29.495
1.0101 29.375
1.01149 29.295
1.01287 29.355
1.01426 29.4275
1.01565 29.4025
1.01704 29.37
1.01842 29.45
1.01981 29.4625
1.02119 29.4175
1.02258 29.35
1.02397 29.44
1.02536 29.4525
1.02674 29.355
1.02813 29.3725
1.02951 29.36
1.0309 29.46
1.03229 29.605
1.03367 29.7
1.03506 29.575
1.03645 29.3675
1.03784 29.5
1.03922 29.1575
1.04061 29.37
1.04199 29.4625
1.04338 29.5575
1.04477 29.395
1.04616 29.43
1.04754 29.48
1.04893 29.4425
1.05031 29.4375
1.0517 29.425
1.05309 29.3925
1.05447 29.455
1.05586 29.47
1.05725 29.4225
1.05864 29.4875
1.06002 29.575
1.06141 29.46
1.06279 29.4875
1.06418 29.5
1.06557 29.3875
1.06696 29.52
1.06834 29.505
1.06973 29.415
1.07111 29.375
1.0725 29.4225
1.07389 29.4175
1.07527 29.4525
1.07666 29.5225
1.07805 29.645
1.07944 29.5325
1.08082 29.555
1.08221 29.5175
1.08359 29.275
1.08498 29.5025
1.08637 29.3925
1.08776 29.5675
1.08914 29.4625
1.09053 29.385
1.09191 29.545
1.0933 29.6475
1.09469 29.7775
1.09608 29.465
1.09746 29.62
1.09885 29.73
1.10024 29.26
1.10162 29.645
1.10301 29.6175
1.10439 29.6175
1.10578 29.3425
1.10717 29.1925
1.10856 29.2125
1.10994 29.5575
1.11133 29.5275
1.11271 29.265
1.1141 29.7225
1.11549 29.4975
1.11688 29.5275
1.11826 29.5075
1.11965 29.605
1.12104 29.6375
1.12242 29.61
1.12381 29.2525
1.12519 29.545
1.12658 29.56
1.12797 29.5575
1.12936 29.675
1.13074 29.4625
1.13213 29.5525
1.13351 29.5225
1.1349 29.4625
1.13629 29.695
1.13768 29.54
1.13906 29.535
1.14045 29.465
1.14184 29.5575
1.14322 29.455
1.14461 29.5125
1.14599 29.5125
1.14738 29.545
1.14877 29.5425
1.15016 29.545
1.15154 29.59
1.15293 29.6125
1.15432 29.71
1.1557 29.525
1.15709 29.44
1.15848 29.565
1.15986 29.6175
1.16125 29.515
1.16264 29.4875
1.16402 29.53
1.16541 29.695
1.16679 29.3725
1.16818 29.745
1.16957 29.555
1.17096 29.6475
1.17234 29.5475
1.17373 29.6525
1.17511 29.65
1.1765 29.57
1.17789 29.605
1.17928 29.5875
1.18066 29.5875
1.18205 29.6825
1.18344 29.65
1.18482 29.845
1.18621 29.455
1.18759 29.3475
1.18898 29.5375
1.19037 29.68
1.19176 29.7025
1.19314 29.685
1.19453 29.6325
1.19591 29.455
1.1973 29.765
1.19869 29.6525
1.20008 29.645
1.20146 29.6725
1.20285 29.6075
1.20424 29.6375
1.20562 29.68
1.20701 29.6
1.20839 29.6125
1.20978 29.7175
1.21117 29.63
1.21256 29.535
1.21394 29.64
1.21533 29.6625
1.21671 29.705
1.2181 29.7025
1.21949 29.75
1.22088 29.7025
1.22226 29.61
1.22365 29.68
1.22504 29.61
1.22642 29.7075
1.22781 29.7075
1.22919 29.59
1.23058 29.68
1.23197 29.635
1.23336 29.7475
1.23474 29.7225
1.23613 29.645
1.23752 29.7225
1.2389 29.6675
1.24029 29.8125
1.24168 29.57
1.24306 29.5825
1.24445 29.5175
1.24584 29.7125
1.24722 29.655
1.24861 29.605
1.24999 29.675
1.25138 29.55
1.25277 29.6275
1.25416 29.5825
1.25554 29.595
1.25693 29.705
1.25831 29.5225
1.2597 29.615
1.26109 29.555
1.26248 29.6775
1.26386 29.81
1.26525 29.67
1.26664 29.635
1.26802 29.635
1.26941 29.735
1.27079 29.73
1.27218 29.675
1.27357 29.705
1.27496 29.5725
1.27634 32.285
1.27773 31.1425
1.27912 29.7675
1.28051 29.6325
1.28189 29.7225
1.28328 29.735
1.28467 29.6875
1.28606 29.79
1.28744 29.705
1.28883 29.7175
1.29021 29.6875
1.2916 29.67
1.29299 29.6825
1.29437 29.69
1.29576 29.6925
1.29715 29.71
1.29853 29.565
1.29992 29.6775
1.30131 29.7
1.30269 29.77
1.30408 29.8175
1.30547 29.6525
1.30686 29.6025
1.30824 29.805
1.30963 29.6675
1.31101 29.5925
1.3124 29.665
1.31379 29.725
1.31518 29.7125
1.31656 29.965
1.31795 29.785
1.31933 29.7775
1.32072 29.68
1.32211 29.6225
1.32349 29.825
1.32488 29.7325
1.32627 29.555
1.32766 29.7475
1.32904 29.675
1.33043 29.5675
1.33181 29.7225
1.3332 29.745
1.33459 29.6775
1.33598 29.8325
1.33736 29.6925
1.33875 29.6375
1.34013 29.78
1.34152 29.6425
1.34291 29.8625
1.34429 29.7875
1.34568 29.7625
1.34707 29.5625
1.34846 29.7125
1.34984 29.81
1.35123 29.7675
1.35261 29.6825
1.354 29.72
1.35539 29.725
1.35678 29.705
1.35816 29.6425
1.35955 29.7975
1.36093 29.6275
1.36232 29.785
1.36371 29.81
1.36509 29.6025
1.36648 29.82
1.36787 29.6
1.36926 29.6275
1.37064 29.5575
1.37203 29.7775
1.37341 29.6425
1.3748 29.8725
1.37619 29.9475
1.37758 29.8925
1.37896 30.1
1.38035 29.635
1.38173 29.73
1.38312 29.615
1.38451 29.89
1.38589 29.72
1.38728 29.525
1.38867 29.4625
1.39006 29.94
1.39144 29.5925
1.39283 29.3825
1.39421 29.785
1.3956 29.5925
1.39699 29.475
1.39838 29.36
1.39976 30.0525
1.40115 29.61
1.40253 29.765
1.40392 29.42
1.40531 29.8325
1.40669 29.7975
1.40808 29.9175
1.40947 29.87
1.41086 29.69
1.41224 29.5825
1.41363 29.84
1.41501 29.6725
1.4164 29.785
1.41779 29.3
1.41918 29.89
1.42056 29.7
1.42195 29.66
1.42333 29.435
1.42472 29.4725
1.42611 29.72
1.42749 29.6575
1.42888 29.7925
1.43027 29.5875
1.43166 29.635
1.43304 29.6325
1.43443 29.4775
1.43581 29.4975
1.4372 29.81
1.43859 29.7325
1.43998 29.8125
1.44136 29.7975
1.44275 29.53
1.44413 29.6425
1.44552 29.795
1.44691 29.8525
1.44829 29.5625
1.44968 29.7675
1.45107 29.89
1.45246 29.675
1.45384 29.39
1.45523 30.055
1.45661 29.5375
1.458 29.7525
1.45939 29.58
1.46078 29.4625
1.46216 29.5875
1.46355 29.6875
1.46493 29.5875
1.46632 29.575
1.46771 29.6875
1.46909 29.725
1.47048 30.0725
1.47187 29.425
1.47326 29.4375
1.47464 29.4725
1.47603 29.8325
1.47741 29.925
1.4788 29.825
1.48019 29.6525
1.48158 29.41
1.48296 29.4825
1.48435 29.75
1.48573 29.4775
1.48712 29.7475
1.48851 29.965
1.48989 29.7225
1.49128 30.04
1.49267 29.4775
1.49406 29.4975
1.49544 29.7175
1.49683 29.63
1.49821 29.6375
1.4996 29.6775
1.50099 29.85
1.50238 29.7775
1.50376 29.63
1.50515 29.4225
1.50653 29.65
1.50792 29.535
1.50931 29.65
1.51069 29.815
1.51208 29.9375
1.51347 29.735
1.51486 29.5
1.51624 29.6025
1.51763 29.81
1.51901 29.8525
1.5204 29.6175
1.52179 29.815
1.52318 29.61
1.52456 29.6175
1.52595 29.76
1.52733 29.625
1.52872 29.5975
1.53011 29.7225
1.53149 29.6775
1.53288 29.72
1.53427 29.925
1.53566 29.8525
1.53704 29.65
1.53843 29.765
1.53981 29.7825
1.5412 29.805
1.54259 29.895
1.54397 29.595
1.54536 29.7175
1.54675 29.6225
1.54813 29.8175
1.54952 29.7575
1.55091 29.7825
1.55229 29.79
1.55368 29.555
1.55507 29.76
1.55646 29.86
1.55784 29.56
1.55923 29.7
1.56061 29.68
1.562 29.745
1.56339 29.7175
1.56477 29.7625
1.56616 29.78
1.56755 29.805
1.56893 29.6725
1.57032 29.77
1.57171 29.7125
1.57309 29.8775
1.57448 29.6
1.57587 29.7925
1.57726 29.8325
1.57864 29.795
1.58003 29.65
1.58141 29.88
1.5828 29.745
1.58419 29.7125
1.58557 29.7025
1.58696 29.7
1.58835 29.635
1.58973 29.6325
1.59112 29.64
1.59251 29.6725
1.59389 29.735
1.59528 29.6925
1.59667 29.705
1.59806 29.7375
1.59944 29.8225
1.60083 30.0675
1.60221 29.8325
1.6036 29.69
1.60499 29.7475
1.60637 29.77
1.60776 29.86
1.60915 29.6775
1.61053 29.7225
1.61192 29.76
1.61331 29.7275
1.61469 29.8725
1.61608 29.7025
1.61747 29.74
1.61886 29.8225
1.62024 29.6
1.62163 29.7875
1.62301 29.6725
1.6244 29.655
1.62579 29.8175
1.62717 29.7825
1.62856 29.7625
1.62995 29.5725
1.63133 29.6775
1.63272 29.83
1.63411 29.6375
1.63549 29.735
1.63688 29.7975
1.63827 29.825
1.63966 29.7325
1.64104 29.8375
1.64243 29.79
1.64381 29.6375
1.6452 29.58
1.64659 29.8125
1.64797 29.745
1.64936 29.51
1.65075 30.135
1.65213 29.99
1.65352 29.75
1.65491 29.775
1.65629 29.8375
1.65768 29.735
1.65907 29.7675
1.66046 29.885
1.66184 29.7625
1.66323 29.935
1.66461 29.8425
1.666 29.9225
1.66739 29.7025
1.66877 29.8925
1.67016 29.83
1.67155 29.8175
1.67293 30.03
1.67432 29.9125
1.67571 29.7175
1.67709 29.66
1.67848 29.675
1.67987 30.045
1.68126 29.8575
1.68264 29.895
1.68403 29.9075
1.68541 30.085
1.6868 29.9775
1.68819 29.825
1.68957 29.9575
1.69096 30.1025
1.69235 29.86
1.69373 29.84
1.69512 29.7625
1.69651 29.7675
1.69789 29.7825
1.69928 29.7425
1.70067 29.9425
1.70206 29.8125
1.70344 29.925
1.70483 29.7975
1.70621 29.8075
1.7076 29.85
1.70899 29.7725
1.71037 29.82
1.71176 29.875
1.71315 29.825
1.71453 29.725
1.71592 29.8375
1.71731 29.8725
1.71869 29.875
1.72008 29.7775
1.72147 29.96
1.72286 29.805
1.72424 30.0225
1.72563 29.66
1.72701 29.815
1.7284 29.8425
1.72979 29.8225
1.73117 29.745
1.73256 29.8475
1.73395 29.6275
1.73533 29.8625
1.73672 30.005
1.73811 29.8075
1.73949 29.9775
1.74088 29.66
1.74227 30.0575
1.74366 29.6025
1.74504 29.8725
1.74643 29.765
1.74781 29.775
1.7492 29.8225
1.75059 29.755
1.75198 29.7525
1.75336 29.72
1.75475 29.71
1.75613 29.63
1.75752 29.725
1.75891 29.59
1.76029 29.6775
1.76168 29.7875
1.76307 29.87
1.76446 29.7475
1.76584 29.705
1.76723 29.71
1.76861 29.625
1.77 29.585
1.77139 29.6475
1.77278 29.5325
1.77416 29.6375
1.77555 29.8725
1.77693 29.855
1.77832 29.6125
1.77971 29.7025
1.78109 29.67
1.78248 29.55
1.78387 29.71
1.78526 29.56
1.78664 29.4925
1.78803 29.35
1.78941 29.395
1.7908 29.52
1.79219 29.925
1.79358 29.12
1.79496 29.4625
1.79635 29.4175
1.79773 29.5925
1.79912 29.9125
1.80051 29.5
1.80189 29.5825
1.80328 29.6125
1.80467 29.5475
1.80606 29.5575
1.80744 29.5725
1.80883 29.5575
1.81021 29.585
1.8116 29.445
1.81299 29.425
1.81438 29.5775
1.81576 29.61
1.81715 29.5425
1.81853 29.465
1.81992 29.565
1.82131 29.64
1.82269 29.5475
1.82408 29.435
1.82547 29.7725
1.82686 29.565
1.82824 29.525
1.82963 29.5925
1.83101 29.6175
1.8324 29.5625
1.83379 29.6525
1.83518 29.4475
1.83656 29.6175
1.83795 29.4675
1.83933 29.62
1.84072 29.3
1.84211 29.54
1.84349 29.525
1.84488 29.66
1.84627 29.535
1.84766 29.675
1.84904 29.6175
1.85043 29.5675
1.85181 29.7075
1.8532 29.52
1.85459 29.7825
1.85598 29.5975
1.85736 29.7175
1.85875 29.6525
1.86013 29.67
1.86152 29.6125
1.86291 29.6475
1.86429 30.085
1.86568 29.6825
1.86707 29.68
1.86846 29.7675
1.86984 30.125
1.87123 29.8225
1.87261 29.7525
1.874 30.1375
1.87539 29.9375
1.87678 29.815
1.87816 29.665
1.87955 29.805
1.88093 29.74
1.88232 29.9425
1.88371 30.1875
1.88509 29.7175
1.88648 29.7925
1.88787 29.785
1.88926 29.845
1.89064 29.8225
1.89203 29.52
1.89341 30.1225
1.8948 29.7925
1.89619 29.895
1.89758 29.86
1.89896 29.9425
1.90035 29.935
1.90173 30.0975
1.90312 29.79
1.90451 30.065
1.90589 29.9225
1.90728 29.9725
1.90867 30.24
1.91006 30.1875
1.91144 29.7175
1.91283 30.0575
1.91421 30.0175
1.9156 30.0825
1.91699 29.99
1.91838 30.085
1.91976 30.12
1.92115 30.0825
1.92253 29.7325
1.92392 30.3425
1.92531 30.205
1.92669 30.045
1.92808 30.0625
1.92947 29.9875
1.93086 30.055
1.93224 30.2025
1.93363 30.275
1.93501 29.905
1.9364 30.1175
1.93779 30.065
1.93918 30.045
1.94056 30.22
1.94195 30.12
1.94333 30.2325
1.94472 30.2325
1.94611 30.43
1.94749 30.2025
1.94888 30.235
1.95027 30.2775
1.95166 30.215
1.95304 30.155
1.95443 30.27
1.95581 30.2625
1.9572 30.075
1.95859 29.9075
1.95998 30.2525
1.96136 30.2375
1.96275 30.2825
1.96413 30.1375
1.96552 30.2775
1.96691 30.3475
1.96829 30.3125
1.96968 30.3
1.97107 30.2
1.97246 30.53
1.97384 30.395
1.97523 30.3175
1.97661 30.31
1.978 30.2425
1.97939 30.23
1.98077 30.37
1.98216 30.31
1.98355 30.4375
1.98493 30.6225
1.98632 30.055
1.98771 30.41
1.98909 30.1
1.99048 30.32
1.99187 30.315
1.99326 30.53
1.99464 30.3475
1.99603 30.27
